Frequency (Hz),-30,-29,-28,-27,-26,-25,-24,-23,-22,-21,-20,-19,-18,-17,-16,-15,-14,-13,-12,-11,-10,-9,-8,-7,-6,-5,-4,-3,-2,-1,0
400000000.0,-33.492,-32.479,-31.501,-30.45,-29.475,-28.472,-27.452,-26.266,-25.463,-24.431,-23.36,-22.528,-21.525,-20.494,-19.507,-18.497,-17.557,-16.533,-15.514,-14.501,-13.408,-12.507,-11.569,-10.574,-9.525,-8.514,-7.619,-6.607,-5.543,-4.614,-3.656
500000000.0,-33.22,-32.198,-31.207,-30.196,-29.211,-28.185,-27.187,-26.01,-25.199,-24.169,-23.087,-22.274,-21.272,-20.237,-19.255,-18.237,-17.292,-16.279,-15.273,-14.258,-13.174,-12.273,-11.342,-10.34,-9.296,-8.286,-7.372,-6.365,-5.299,-4.364,-3.407
600000000.0,-33.079,-32.051,-31.048,-30.021,-29.046,-28.055,-27.048,-25.853,-25.047,-24.016,-22.947,-22.127,-21.123,-20.105,-19.106,-18.102,-17.157,-16.151,-15.133,-14.127,-13.037,-12.137,-11.202,-10.219,-9.171,-8.159,-7.262,-6.242,-5.174,-4.236,-3.27
700000000.0,-32.836,-31.841,-30.864,-29.816,-28.864,-27.85,-26.839,-25.658,-24.857,-23.82,-22.749,-21.953,-20.949,-19.916,-18.929,-17.924,-16.996,-15.978,-14.974,-13.96,-12.881,-11.974,-11.044,-10.066,-9.007,-7.993,-7.089,-6.081,-5.015,-4.082,-3.122
800000000.0,-32.814,-31.787,-30.808,-29.773,-28.814,-27.772,-26.791,-25.615,-24.789,-23.774,-22.692,-21.932,-20.922,-19.89,-18.922,-17.907,-16.987,-15.968,-14.96,-13.964,-12.887,-11.986,-11.057,-10.078,-9.023,-8.017,-7.106,-6.095,-5.038,-4.106,-3.142
900000000.0,-32.717,-31.685,-30.714,-29.665,-28.727,-27.702,-26.696,-25.508,-24.706,-23.663,-22.599,-21.863,-20.861,-19.847,-18.855,-17.867,-16.941,-15.944,-14.938,-13.936,-12.871,-11.986,-11.058,-10.081,-9.036,-8.038,-7.12,-6.115,-5.049,-4.124,-3.169
1000000000.0,-32.686,-31.64,-30.679,-29.61,-28.672,-27.672,-26.656,-25.466,-24.665,-23.635,-22.553,-21.834,-20.835,-19.827,-18.849,-17.855,-16.936,-15.956,-14.946,-13.962,-12.91,-12.037,-11.107,-10.131,-9.088,-8.083,-7.184,-6.184,-5.116,-4.187,-3.249
1100000000.0,-32.711,-31.709,-30.727,-29.676,-28.723,-27.731,-26.7,-25.506,-24.709,-23.692,-22.627,-21.918,-20.917,-19.906,-18.944,-17.935,-17.027,-16.065,-15.061,-14.088,-13.044,-12.177,-11.263,-10.305,-9.266,-8.265,-7.357,-6.359,-5.293,-4.364,-3.421
1200000000.0,-32.88,-31.844,-30.846,-29.784,-28.848,-27.852,-26.822,-25.646,-24.846,-23.813,-22.735,-22.056,-21.035,-20.034,-19.072,-18.08,-17.149,-16.193,-15.196,-14.217,-13.195,-12.331,-11.431,-10.474,-9.439,-8.445,-7.557,-6.552,-5.495,-4.57,-3.618
1300000000.0,-32.976,-31.961,-30.942,-29.913,-28.967,-27.944,-26.936,-25.768,-24.97,-23.93,-22.873,-22.185,-21.187,-20.165,-19.201,-18.225,-17.307,-16.33,-15.335,-14.376,-13.338,-12.494,-11.576,-10.643,-9.613,-8.632,-7.737,-6.749,-5.692,-4.77,-3.828
1400000000.0,-33.164,-32.149,-31.172,-30.12,-29.195,-28.151,-27.153,-25.983,-25.178,-24.151,-23.08,-22.417,-21.415,-20.401,-19.456,-18.479,-17.551,-16.604,-15.608,-14.65,-13.633,-12.784,-11.888,-10.951,-9.924,-8.936,-8.057,-7.07,-6.028,-5.115,-4.182
1500000000.0,-33.66,-32.644,-31.662,-30.604,-29.672,-28.655,-27.659,-26.459,-25.67,-24.641,-23.588,-22.904,-21.896,-20.905,-19.953,-18.969,-18.054,-17.117,-16.129,-15.16,-14.156,-13.325,-12.44,-11.52,-10.504,-9.524,-8.656,-7.674,-6.637,-5.717,-4.789
1600000000.0,-33.923,-32.906,-31.928,-30.91,-29.938,-28.924,-27.921,-26.754,-25.934,-24.923,-23.842,-23.15,-22.149,-21.14,-20.194,-19.2,-18.3,-17.343,-16.363,-15.404,-14.39,-13.559,-12.672,-11.766,-10.746,-9.78,-8.907,-7.927,-6.874,-5.965,-5.029
1700000000.0,-34.146,-33.104,-32.13,-31.099,-30.161,-29.134,-28.111,-26.951,-26.131,-25.103,-24.055,-23.334,-22.334,-21.323,-20.369,-19.383,-18.476,-17.519,-16.521,-15.568,-14.557,-13.727,-12.839,-11.933,-10.925,-9.962,-9.095,-8.114,-7.075,-6.151,-5.202
1800000000.0,-34.237,-33.218,-32.259,-31.269,-30.28,-29.26,-28.27,-27.079,-26.271,-25.24,-24.2,-23.481,-22.457,-21.457,-20.491,-19.51,-18.603,-17.647,-16.642,-15.678,-14.662,-13.843,-12.957,-12.059,-11.043,-10.085,-9.215,-8.237,-7.191,-6.277,-5.32
1900000000.0,-34.56,-33.526,-32.544,-31.509,-30.57,-29.563,-28.547,-27.36,-26.563,-25.539,-24.49,-23.735,-22.729,-21.729,-20.767,-19.79,-18.876,-17.907,-16.907,-15.939,-14.923,-14.119,-13.215,-12.325,-11.314,-10.356,-9.495,-8.514,-7.466,-6.545,-5.59
2000000000.0,-34.649,-33.624,-32.621,-31.582,-30.637,-29.653,-28.62,-27.446,-26.654,-25.624,-24.544,-23.793,-22.783,-21.778,-20.821,-19.821,-18.912,-17.936,-16.946,-15.975,-14.965,-14.134,-13.247,-12.356,-11.344,-10.39,-9.518,-8.542,-7.512,-6.563,-5.609
2100000000.0,-34.815,-33.81,-32.815,-31.792,-30.844,-29.802,-28.797,-27.619,-26.827,-25.813,-24.732,-23.959,-22.95,-21.94,-20.984,-19.986,-19.073,-18.105,-17.099,-16.129,-15.099,-14.276,-13.382,-12.495,-11.481,-10.525,-9.678,-8.706,-7.668,-6.738,-5.77
2200000000.0,-34.735,-33.693,-32.712,-31.68,-30.739,-29.723,-28.735,-27.532,-26.733,-25.716,-24.648,-23.863,-22.85,-21.849,-20.861,-19.87,-18.944,-17.967,-16.964,-16.0,-14.966,-14.132,-13.242,-12.345,-11.333,-10.393,-9.53,-8.569,-7.531,-6.596,-5.622
2300000000.0,-34.902,-33.92,-32.893,-31.849,-30.891,-29.883,-28.895,-27.725,-26.944,-25.896,-24.831,-24.041,-23.024,-22.005,-21.044,-20.041,-19.122,-18.141,-17.141,-16.165,-15.135,-14.301,-13.4,-12.515,-11.505,-10.567,-9.71,-8.761,-7.717,-6.782,-5.829
2400000000.0,-34.879,-33.89,-32.886,-31.851,-30.891,-29.856,-28.875,-27.698,-26.899,-25.861,-24.814,-24.012,-22.988,-21.982,-21.011,-20.018,-19.092,-18.115,-17.114,-16.14,-15.109,-14.28,-13.391,-12.502,-11.493,-10.549,-9.71,-8.746,-7.72,-6.794,-5.835
2500000000.0,-34.808,-33.799,-32.841,-31.793,-30.868,-29.845,-28.808,-27.648,-26.844,-25.831,-24.766,-23.982,-22.941,-21.945,-20.974,-19.976,-19.046,-18.08,-17.066,-16.104,-15.088,-14.245,-13.368,-12.462,-11.471,-10.521,-9.68,-8.736,-7.708,-6.793,-5.835
2600000000.0,-34.758,-33.797,-32.825,-31.796,-30.803,-29.811,-28.789,-27.632,-26.812,-25.787,-24.736,-23.92,-22.889,-21.902,-20.93,-19.929,-19.009,-18.025,-17.026,-16.04,-14.999,-14.173,-13.283,-12.391,-11.389,-10.463,-9.617,-8.668,-7.638,-6.732,-5.774
2700000000.0,-34.861,-33.839,-32.864,-31.849,-30.898,-29.874,-28.878,-27.712,-26.905,-25.874,-24.828,-23.994,-22.977,-21.957,-21.003,-19.989,-19.074,-18.093,-17.094,-16.108,-15.074,-14.253,-13.355,-12.46,-11.463,-10.534,-9.702,-8.759,-7.749,-6.841,-5.891
2800000000.0,-34.88,-33.902,-32.913,-31.872,-30.924,-29.876,-28.896,-27.707,-26.926,-25.912,-24.845,-24.006,-22.987,-21.964,-20.991,-19.999,-19.078,-18.086,-17.07,-16.091,-15.07,-14.231,-13.343,-12.444,-11.443,-10.507,-9.684,-8.741,-7.732,-6.834,-5.876
2900000000.0,-34.943,-34.028,-33.024,-31.97,-30.991,-29.98,-29.007,-27.829,-27.041,-25.997,-24.937,-24.108,-23.103,-22.076,-21.098,-20.114,-19.164,-18.204,-17.197,-16.198,-15.173,-14.333,-13.452,-12.568,-11.567,-10.653,-9.811,-8.882,-7.886,-7.012,-6.056
3000000000.0,-35.284,-34.333,-33.328,-32.308,-31.328,-30.295,-29.27,-28.095,-27.33,-26.283,-25.234,-24.371,-23.367,-22.331,-21.373,-20.365,-19.442,-18.454,-17.439,-16.46,-15.411,-14.583,-13.687,-12.785,-11.788,-10.857,-10.039,-9.108,-8.121,-7.23,-6.298
3100000000.0,-35.275,-34.323,-33.283,-32.332,-31.302,-30.306,-29.313,-28.147,-27.348,-26.322,-25.262,-24.384,-23.377,-22.341,-21.388,-20.374,-19.446,-18.453,-17.441,-16.463,-15.416,-14.559,-13.666,-12.774,-11.774,-10.855,-10.023,-9.107,-8.125,-7.249,-6.319
3200000000.0,-35.492,-34.48,-33.494,-32.463,-31.503,-30.5,-29.466,-28.305,-27.537,-26.473,-25.435,-24.541,-23.54,-22.512,-21.52,-20.518,-19.6,-18.584,-17.589,-16.595,-15.546,-14.692,-13.8,-12.891,-11.887,-10.955,-10.13,-9.219,-8.237,-7.354,-6.433
3300000000.0,-35.288,-34.307,-33.324,-32.27,-31.32,-30.34,-29.295,-28.118,-27.374,-26.328,-25.27,-24.36,-23.383,-22.358,-21.358,-20.356,-19.42,-18.422,-17.405,-16.432,-15.38,-14.528,-13.629,-12.72,-11.719,-10.776,-9.961,-9.04,-8.058,-7.187,-6.273
3400000000.0,-35.362,-34.297,-33.392,-32.337,-31.427,-30.379,-29.373,-28.199,-27.399,-26.351,-25.298,-24.417,-23.39,-22.395,-21.406,-20.396,-19.469,-18.46,-17.468,-16.488,-15.423,-14.573,-13.665,-12.76,-11.764,-10.834,-10.01,-9.091,-8.109,-7.251,-6.352
